	time (ns)	angle (degree)	average angle	angle standard deviation
0	500.000	10.064		
1	501.000	13.678		
2	502.000	15.244		
3	503.000	12.267		
4	504.000	11.556		
5	505.000	11.444		
6	506.000	13.302		
7	507.000	11.508		
8	508.000	14.784		
9	509.000	13.098		
10	510.000	14.016		
11	511.000	13.156		
12	512.000	14.113	12.065	1.903
13	513.000	13.699	12.267	1.949
14	514.000	11.570	12.351	2.054
15	515.000	7.933	12.252	1.967
16	516.000	10.645	12.232	1.969
17	517.000	8.542	12.281	1.967
18	518.000	9.203	12.282	1.967
19	519.000	10.491	12.197	1.966
20	520.000	11.076	12.085	2.083
21	521.000	12.263	11.819	2.148
22	522.000	11.646	11.623	2.249
23	523.000	13.965	11.445	2.227
24	524.000	12.361	11.294	2.234
25	525.000	15.114	11.050	2.246
26	526.000	15.777	10.972	2.183
27	527.000	12.764	10.936	2.180
28	528.000	11.782	11.043	2.091
29	529.000	12.778	10.961	2.147
30	530.000	11.452	10.927	2.193
31	531.000	11.196	10.945	2.180
32	532.000	8.709	10.896	2.204
33	533.000	8.135	11.013	2.289
34	534.000	8.181	11.051	2.318
35	535.000	9.569	11.086	2.334
36	536.000	9.378	11.068	2.312
37	537.000	8.023	11.068	2.312
38	538.000	11.747	10.910	2.154
39	539.000	10.659	10.789	1.944
40	540.000	10.630	10.717	1.901
41	541.000	8.576	10.729	1.908
42	542.000	7.705	10.714	1.893
43	543.000	9.641	10.809	1.989
44	544.000	9.283	10.903	2.063
45	545.000	13.990	10.992	2.011
46	546.000	13.212	11.235	2.018
47	547.000	12.530	11.472	1.992
48	548.000	13.494	11.523	1.957
49	549.000	12.383	11.669	1.926
50	550.000	11.154	11.729	1.829
51	551.000	12.756	11.646	1.874
52	552.000	10.968	11.687	1.862
53	553.000	12.064	11.756	1.854
54	554.000	12.417	11.933	1.746
55	555.000	13.828	12.229	1.622
56	556.000	13.550	12.502	1.737
57	557.000	10.933	12.786	1.770
58	558.000	14.192	12.866	1.869
59	559.000	14.110	12.910	1.890
60	560.000	10.851	13.086	2.051
61	561.000	13.015	13.198	2.149
62	562.000	9.523	13.347	2.218
63	563.000	9.686	13.418	2.172
64	564.000	11.671	13.303	2.283
65	565.000	12.359	13.249	2.355
66	566.000	13.019	13.234	2.364
67	567.000	15.102	13.377	2.420
68	568.000	16.448	13.382	2.422
69	569.000	16.400	13.246	2.506
70	570.000	15.993	13.228	2.525
71	571.000	14.300	12.975	2.732
72	572.000	16.932	12.799	2.796
73	573.000	16.295	12.791	2.802
74	574.000	16.097	12.715	2.822
75	575.000	12.944	12.756	2.781
76	576.000	9.863	12.789	2.747
77	577.000	9.623	12.652	2.888
78	578.000	11.693	12.564	2.930
79	579.000	15.998	12.356	3.077
80	580.000	13.952	12.067	3.147
81	581.000	10.140	11.790	3.048
82	582.000	10.483	11.518	2.921
83	583.000	7.875	11.208	2.836
84	584.000	9.721	10.993	2.795
85	585.000	10.653	10.675	2.531
86	586.000	11.094	10.418	2.247
87	587.000	10.549	10.150	1.917
88	588.000	10.525	10.049	1.828
89	589.000	8.240	10.103	1.843
90	590.000	10.159	10.139	1.841
91	591.000	7.825	10.050	1.817
92	592.000	7.885	9.767	1.340
93	593.000	9.523	9.491	1.137
94	594.000	9.589	9.362	1.239
95	595.000	8.250	9.198	1.350
96	596.000	8.911	9.165	1.393
97	597.000	8.979	9.187	1.407
98	598.000	9.883	9.120	1.374
99	599.000	9.387	8.997	1.327
100	600.000	10.417	9.001	1.333
101	601.000	11.235	8.912	1.301
102	602.000	10.502	8.907	1.304
103	603.000	9.479	8.638	1.673
104	604.000	8.915	8.580	1.727
105	605.000	7.063	8.535	1.760
106	606.000	6.909	8.352	1.886
107	607.000	6.393	8.354	1.888
108	608.000	7.042	8.449	1.942
109	609.000	10.278	8.476	1.953
110	610.000	8.971	8.484	1.955
111	611.000	8.005	8.387	1.943
112	612.000	10.663	8.221	2.029
113	613.000	8.296	7.992	2.093
114	614.000	8.108	7.707	2.120
115	615.000	3.453	7.504	2.082
116	616.000	6.368	7.363	2.063
117	617.000	6.765	7.175	2.129
118	618.000	4.948	6.931	2.464
119	619.000	9.630	6.730	2.663
120	620.000	10.637	6.541	2.849
121	621.000	9.584	6.370	2.945
122	622.000	9.163	6.152	2.844
123	623.000	7.475	5.962	2.806
124	624.000	5.234	5.917	2.780
125	625.000	4.693	5.792	2.624
126	626.000	4.093	5.804	2.637
127	627.000	5.448	5.825	2.658
128	628.000	5.936	6.132	2.812
129	629.000	4.216	6.290	2.934
130	630.000	0.977	6.404	3.007
131	631.000	1.876	6.627	3.101
132	632.000	1.673	6.640	3.113
133	633.000	2.752	6.623	3.093
134	634.000	4.831	6.566	3.048
135	635.000	4.225	6.600	3.083
136	636.000	6.884	6.627	3.094
137	637.000	7.534	6.756	3.101
138	638.000	8.599	6.792	3.081
139	639.000	8.634	6.948	3.037
140	640.000	11.134	6.982	3.025
141	641.000	10.319	7.134	3.065
142	642.000	9.597	7.349	3.040
143	643.000	10.542	7.718	2.784
144	644.000	9.933	8.056	2.547
145	645.000	10.232	8.361	2.182
146	646.000	8.151	8.710	1.931
147	647.000	10.017	8.904	1.760
148	648.000	8.133	9.053	1.483
149	649.000	8.480	9.043	1.499
150	650.000	5.593	8.965	1.627
151	651.000	7.995	8.963	1.628
152	652.000	6.292	9.002	1.631
153	653.000	9.728	8.913	1.570
154	654.000	9.594	8.849	1.542
155	655.000	10.207	8.895	1.582
156	656.000	10.311	8.927	1.624
157	657.000	9.314	8.966	1.661
158	658.000	11.479	8.948	1.649
159	659.000	9.662	8.982	1.641
160	660.000	7.962	8.813	1.743
161	661.000	6.633	8.705	1.868
162	662.000	5.577	8.628	1.916
163	663.000	8.556	8.581	2.007
164	664.000	9.615	8.502	2.069
165	665.000	8.902	8.412	2.212
166	666.000	8.716	8.179	2.369
167	667.000	10.743	7.862	2.682
168	668.000	11.339	7.564	2.821
169	669.000	10.926	7.330	2.826
170	670.000	9.769	7.208	2.802
171	671.000	9.003	6.869	2.776
172	672.000	5.802	6.662	2.752
173	673.000	5.416	6.505	2.786
174	674.000	6.576	6.425	2.811
175	675.000	4.399	6.475	2.806
176	676.000	6.018	6.256	2.850
177	677.000	4.052	5.985	2.840
178	678.000	3.909	5.859	2.774
179	679.000	1.661	5.631	2.764
180	680.000	2.753	5.347	2.575
181	681.000	4.479	5.038	2.272
182	682.000	6.242	4.780	1.913
183	683.000	3.022	4.571	1.607
184	684.000	4.483	4.457	1.361
185	685.000	4.030	4.528	1.476
186	686.000	4.646	4.554	1.497
187	687.000	6.826	4.619	1.620
188	688.000	3.082	4.846	1.950
189	689.000	2.835	4.930	2.046
190	690.000	5.759	5.050	2.080
191	691.000	3.013	5.205	2.135
192	692.000	3.634	5.549	2.230
193	693.000	3.615	5.737	2.182
194	694.000	4.481	5.773	2.168
195	695.000	4.549	5.848	2.217
196	696.000	6.146	6.079	2.211
197	697.000	7.577	6.183	2.194
198	698.000	6.057	6.400	2.240
199	699.000	8.215	6.619	2.328
200	700.000	10.061	6.682	2.355
201	701.000	8.114	6.973	2.341
202	702.000	7.054	7.181	2.183
203	703.000	7.795	7.198	2.173
204	704.000	10.251	7.305	2.019
205	705.000	7.447	7.487	1.874
206	706.000	5.378	7.655	1.692
207	707.000	8.131	7.690	1.632
208	708.000	8.787	7.724	1.571
209	709.000	7.087	7.716	1.581
210	710.000	9.457	7.668	1.603
211	711.000	10.133	7.686	1.586
212	712.000	8.387	7.580	1.638
213	713.000	10.359	7.323	1.733
214	714.000	8.027	7.211	1.770
215	715.000	6.200	7.167	1.787
216	716.000	5.681	7.154	1.784
217	717.000	8.185	7.069	1.677
218	718.000	7.815	7.074	1.679
219	719.000	5.358	7.065	1.689
220	720.000	5.410	6.947	1.714
221	721.000	5.925	6.890	1.673
222	722.000	6.384	6.855	1.678
223	723.000	6.520	6.713	1.597
224	724.000	5.548	6.492	1.481
225	725.000	3.644	6.291	1.554
226	726.000	5.311	6.157	1.314
227	727.000	5.959	6.040	1.270
228	728.000	7.465	6.016	1.273
229	729.000	8.125	5.990	1.287
230	730.000	7.567	5.881	1.206
231	731.000	5.157	5.833	1.147
232	732.000	5.186	5.898	1.166
233	733.000	7.355	5.953	1.174
234	734.000	6.216	5.964	1.175
235	735.000	5.899	5.994	1.195
236	736.000	4.623	5.962	1.191
237	737.000	3.347	6.048	1.238
238	738.000	7.009	6.154	1.132
239	739.000	5.100	6.241	1.148
240	740.000	5.612	6.375	1.299
241	741.000	5.026	6.275	1.307
242	742.000	5.469	6.174	1.255
243	743.000	6.602	6.176	1.258
244	744.000	6.999	6.225	1.241
245	745.000	6.779	6.326	1.256
246	746.000	6.209	6.350	1.281
247	747.000	7.110	6.378	1.286
248	748.000	5.722	6.507	1.393
249	749.000	7.717	6.631	1.356
250	750.000	6.288	6.754	1.173
251	751.000	7.480	6.717	1.179
252	752.000	9.305	6.697	1.213
253	753.000	4.963	6.633	1.310
254	754.000	5.599	6.610	1.344
255	755.000	7.634	6.502	1.533
256	756.000	6.364	6.403	1.606
257	757.000	7.734	6.265	1.698
258	758.000	7.941	6.117	1.809
259	759.000	6.908	6.035	1.850
260	760.000	9.127	5.818	2.029
261	761.000	7.727	5.878	2.048
262	762.000	6.423	5.847	2.025
263	763.000	6.097	5.801	2.027
264	764.000	4.584	5.775	2.009
265	765.000	4.022	5.624	1.869
266	766.000	4.444	5.555	1.926
267	767.000	2.782	5.540	1.927
268	768.000	4.115	5.430	1.881
269	769.000	3.554	5.373	1.873
270	770.000	3.071	5.380	1.882
271	771.000	4.177	5.442	1.991
272	772.000	1.672	5.487	2.037
273	773.000	7.218	5.383	1.906
274	774.000	6.942	5.431	1.982
275	775.000	5.153	5.383	1.971
276	776.000	6.816	5.327	1.970
277	777.000	5.545	5.355	1.964
278	778.000	3.235	5.553	2.069
279	779.000	5.212	5.668	2.085
280	780.000	4.889	5.774	1.998
281	781.000	4.947	5.839	1.968
282	782.000	7.913	5.928	1.910
283	783.000	9.470	5.978	1.847
284	784.000	8.033	6.060	1.809
285	785.000	6.528	6.453	1.882
286	786.000	8.931	6.559	1.996
287	787.000	5.216	6.685	2.118
288	788.000	4.711	6.915	2.252
289	789.000	5.285	7.038	2.329
290	790.000	8.955	7.178	2.341
291	791.000	7.330	7.357	2.193
292	792.000	5.421	7.503	2.166
293	793.000	5.741	7.727	2.174
294	794.000	5.789	7.877	2.103
295	795.000	4.320	7.930	2.121
296	796.000	6.237	7.899	2.102
297	797.000	11.501	7.901	2.103
298	798.000	9.844	8.043	2.126
299	799.000	10.099	7.883	2.206
300	800.000	10.896	8.113	2.215
301	801.000	9.891	8.310	2.117
302	802.000	9.054	8.494	2.041
303	803.000	7.700	8.608	2.146
304	804.000	8.863	8.845	2.319
305	805.000	10.494	9.125	2.310
306	806.000	8.697	9.444	2.373
307	807.000	9.254	9.620	2.251
308	808.000	8.675	9.802	1.971
309	809.000	8.087	9.905	1.839
310	810.000	10.095	9.858	1.812
311	811.000	4.929	9.891	1.819
312	812.000	10.944	9.949	1.849
313	813.000	9.655	9.925	1.840
314	814.000	9.873	9.944	1.842
315	815.000	11.820	10.013	1.839
316	816.000	13.251	10.169	1.800
317	817.000	12.413	10.273	1.796
318	818.000	13.715	10.277	1.797
319	819.000	10.185	10.355	1.768
320	820.000	8.885	10.322	1.797
321	821.000	8.814	10.336	1.785
322	822.000	10.312	10.469	1.734
323	823.000	10.679	10.631	1.879
324	824.000	11.550	10.950	1.513
325	825.000	10.295	10.968	1.515
326	826.000	10.364	11.058	1.500
327	827.000	10.775	11.193	1.541
328	828.000	11.607	11.257	1.600
329	829.000	11.449	11.164	1.546
330	830.000	10.590	11.188	1.570
331	831.000	10.662	11.245	1.689
332	832.000	8.417	11.308	1.677
333	833.000	9.030	11.440	1.606
334	834.000	11.427	11.504	1.527
335	835.000	14.128	11.545	1.507
336	836.000	12.918	11.586	1.497
337	837.000	11.397	11.524	1.530
338	838.000	11.889	11.687	1.608
339	839.000	13.262	11.891	1.752
340	840.000	13.403	12.044	1.815
341	841.000	10.933	12.067	1.813
342	842.000	13.003	12.118	1.813
343	843.000	15.160	12.192	1.786
344	844.000	11.760	12.258	1.757
345	845.000	12.180	12.366	1.586
346	846.000	10.424	12.439	1.463
347	847.000	11.334	12.391	1.516
348	848.000	11.702	12.295	1.477
349	849.000	9.996	12.169	1.555
350	850.000	14.359	12.185	1.549
351	851.000	15.483	12.074	1.665
352	852.000	14.580	11.921	1.727
353	853.000	12.194	11.853	1.700
354	854.000	12.731	11.893	1.689
355	855.000	12.434	11.757	1.731
356	856.000	12.316	11.505	1.674
357	857.000	11.096	11.401	1.737
358	858.000	10.869	11.237	1.850
359	859.000	10.233	11.144	1.949
360	860.000	11.723	11.188	1.965
361	861.000	9.755	11.118	1.977
362	862.000	11.815	11.122	1.975
363	863.000	9.117	11.039	1.874
364	864.000	9.423	10.949	1.697
365	865.000	11.715	10.894	1.594
366	866.000	11.916	10.859	1.574
367	867.000	9.622	10.742	1.537
368	868.000	8.842	10.747	1.543
369	869.000	9.165	10.740	1.537
370	870.000	8.074	10.750	1.540
371	871.000	8.099	10.855	1.634
372	872.000	12.433	11.011	1.755
373	873.000	9.957	11.108	1.859
374	874.000	10.107	11.217	1.857
375	875.000	12.276	11.224	1.860
376	876.000	13.225	11.348	1.816
377	877.000	13.215	11.388	1.782
378	878.000	11.314	11.302	1.818
379	879.000	9.802	11.372	1.876
380	880.000	12.566	11.468	1.844
381	881.000	12.147	11.640	1.788
382	882.000	11.334	11.700	1.725
383	883.000	13.489	11.829	1.555
384	884.000	14.142	11.858	1.488
385	885.000	14.141	11.667	1.703
386	886.000	12.483	11.583	1.836
387	887.000	11.998	11.501	1.948
388	888.000	12.212	11.405	1.968
389	889.000	10.428	11.294	1.939
390	890.000	9.553	11.152	1.922
391	891.000	13.677	11.109	1.930
392	892.000	12.032	11.151	1.912
393	893.000	13.126	10.987	1.962
394	894.000	10.666	10.845	2.002
395	895.000	11.303	10.726	2.059
396	896.000	8.830	10.542	2.007
397	897.000	7.644	10.247	1.997
398	898.000	7.870	10.036	1.841
399	899.000	8.044	9.826	1.851
400	900.000	9.875	9.581	1.953
401	901.000	10.451	9.339	1.989
402	902.000	9.669	9.154	2.094
403	903.000	10.235	9.097	2.102
404	904.000	10.871	8.877	1.879
405	905.000	8.447	8.822	1.803
406	906.000	8.614	8.841	1.851
407	907.000	8.356	8.873	1.891
408	908.000	8.890	8.843	1.856
409	909.000	6.770	8.892	1.872
410	910.000	8.860	8.900	1.867
411	911.000	7.222	8.999	1.875
412	912.000	5.886	9.166	1.970
413	913.000	6.145	9.242	2.034
414	914.000	5.822	9.272	2.058
415	915.000	8.128	9.385	2.157
416	916.000	8.155	9.418	2.176
417	917.000	10.678	9.512	2.289
418	918.000	13.597	9.644	2.320
419	919.000	11.468	9.776	2.353
420	920.000	10.536	9.832	2.335
421	921.000	10.066	10.020	2.444
422	922.000	7.840	10.243	2.389
423	923.000	10.343	10.365	2.393
424	924.000	12.219	10.658	2.439
425	925.000	11.774	10.905	2.241
426	926.000	11.208	11.189	2.054
427	927.000	12.501	11.426	1.725
428	928.000	11.044	11.642	1.630
429	929.000	13.222	11.857	1.500
430	930.000	11.748	11.936	1.487
431	931.000	11.926	11.832	1.457
432	932.000	9.739	11.854	1.455
433	933.000	13.613	12.001	1.500
434	934.000	12.339	12.164	1.503
435	935.000	11.911	12.347	1.203
436	936.000	14.537	12.459	1.137
437	937.000	12.067	12.537	1.185
438	938.000	13.237	12.584	1.177
439	939.000	11.756	12.614	1.150
440	940.000	13.525	12.547	1.204
441	941.000	13.528	12.539	1.215
442	942.000	12.653	12.358	1.427
443	943.000	11.001	12.276	1.520
444	944.000	12.023	12.197	1.589
445	945.000	14.195	12.077	1.870
446	946.000	14.143	11.824	2.070
447	947.000	12.421	11.582	2.345
448	948.000	13.157	11.412	2.469
449	949.000	14.156	11.130	2.500
450	950.000	12.945	11.053	2.499
451	951.000	11.967	10.923	2.466
452	952.000	10.833	10.858	2.464
453	953.000	10.842	10.683	2.422
454	954.000	8.697	10.502	2.369
455	955.000	9.698	10.429	2.328
456	956.000	9.935	10.403	2.325
457	957.000	6.746	10.277	2.318
458	958.000	7.297	10.126	2.170
459	959.000	6.270	9.907	2.019
460	960.000	7.682	9.861	1.972
461	961.000	7.488	9.647	1.889
462	962.000	10.137	9.471	1.640
463	963.000	9.970	9.383	1.498
464	964.000	10.137	9.344	1.439
465	965.000	9.158	9.357	1.455
466	966.000	8.996	9.350	1.448
467	967.000	10.841	9.247	1.580
468	968.000	10.338	9.186	1.592
469	969.000	8.888	9.139	1.586
470	970.000	10.402	9.204	1.516
471	971.000	8.674	9.163	1.581
472	972.000	11.280	9.176	1.558
473	973.000	7.794	9.145	1.596
474	974.000	9.772	9.091	1.675
475	975.000	10.738	8.994	1.682
476	976.000	10.974	8.839	1.766
477	977.000	11.170	8.731	1.765
478	978.000	10.657	8.730	1.765
479	979.000	6.136	8.759	1.776
480	980.000	8.162	8.606	1.754
481	981.000	8.762	8.434	1.788
482	982.000	8.370	8.421	1.786
483	983.000	6.288	8.274	1.766
484	984.000	6.587	8.270	1.766
485	985.000	6.898	8.206	1.679
486	986.000	6.138	8.303	1.723
487	987.000	7.730	8.369	1.810
488	988.000	6.079	8.347	1.784
489	989.000	7.446	8.215	1.702
490	990.000	9.134	8.207	1.688
491	991.000	9.726	8.160	1.632
492	992.000	7.016	8.342	1.651
493	993.000	6.027	8.436	1.706
494	994.000	8.560	8.428	1.705
495	995.000	6.742	8.428	1.705
496	996.000	8.574	8.549	1.653
497	997.000	9.681	8.643	1.603
498	998.000	10.203	8.670	1.578
499	999.000	11.416	8.731	1.504
500	1000.000	10.207	8.786	1.491
501	1001.000	7.671	8.907	1.381
502	1002.000	10.964	8.935	1.356
503	1003.000	9.487	8.924	1.356
504	1004.000	10.689	8.940	1.368
505	1005.000	10.512	9.043	1.313
506	1006.000	8.553	9.132	1.167
507	1007.000	8.372	9.187	1.171
508	1008.000	9.306	9.384	1.156
509	1009.000	8.956	9.429	1.145
510	1010.000	7.562	9.519	1.250
511	1011.000	7.671	9.534	1.261
512	1012.000	9.105	9.535	1.263
513	1013.000	9.093	9.581	1.309
514	1014.000	8.150	9.688	1.254
515	1015.000	8.846	9.551	1.296
516	1016.000	10.128	9.516	1.310
517	1017.000	9.589	9.478	1.288
518	1018.000	8.263	9.440	1.270
519	1019.000	9.933	9.464	1.258
520	1020.000	11.658	9.515	1.237
521	1021.000	9.703	9.588	1.278
522	1022.000	11.939	9.645	1.281
523	1023.000	10.584	9.857	1.357
524	1024.000	11.438	10.042	1.363
525	1025.000	11.362	10.152	1.394
526	1026.000	10.346	10.201	1.376
527	1027.000	7.529	10.270	1.311
528	1028.000	8.615	10.440	1.393
529	1029.000	9.730	10.477	1.397
530	1030.000	9.570	10.609	1.464
531	1031.000	9.148	10.635	1.426
532	1032.000	9.642	10.643	1.422
533	1033.000	11.136	10.495	1.502
534	1034.000	10.392	10.368	1.695
535	1035.000	12.854	10.255	1.680
536	1036.000	12.305	10.109	1.804
537	1037.000	11.842	9.918	1.907
538	1038.000	10.310	9.775	1.929
539	1039.000	9.875	9.671	1.965
540	1040.000	13.118	9.744	1.916
541	1041.000	11.042	9.780	1.902
542	1042.000	12.886	9.714	1.932
543	1043.000	8.907	9.560	2.091
544	1044.000	10.142	9.528	2.104
545	1045.000	7.958	9.472	2.119
546	1046.000	6.516	9.356	2.104
547	1047.000	9.121	9.352	2.102
548	1048.000	6.937	9.201	1.972
549	1049.000	6.664	9.013	1.886
550	1050.000	7.782	8.881	1.793
551	1051.000	7.764	8.808	1.769
552	1052.000	9.351	8.730	1.763
553	1053.000	9.496	8.556	1.509
554	1054.000	8.102	8.487	1.427
555	1055.000	5.709	8.403	1.202
556	1056.000	8.346	8.436	1.227
557	1057.000	8.253	8.401	1.188
558	1058.000	8.222	8.386	1.197
559	1059.000	10.292	8.422	1.151
560	1060.000	9.092	8.395	1.142
561	1061.000	7.588	8.493	1.116
562	1062.000	8.544	8.403	1.339
563	1063.000	8.505	8.386	1.350
564	1064.000	7.911	8.329	1.407
565	1065.000	8.772	8.195	1.463
566	1066.000	9.318	8.089	1.461
567	1067.000	10.786	8.134	1.480
568	1068.000	9.732	8.334	1.475
569	1069.000	9.272	8.328	1.475
570	1070.000	7.567	8.352	1.479
571	1071.000	7.426	8.338	1.482
572	1072.000	8.447	8.161	1.503
573	1073.000	9.387	8.010	1.593
574	1074.000	4.405	7.814	1.914
575	1075.000	7.367	7.666	1.997
576	1076.000	6.328	7.526	2.058
577	1077.000	6.017	7.452	2.076
578	1078.000	6.828	7.408	2.059
579	1079.000	9.247	7.437	2.091
580	1080.000	10.694	7.302	1.972
581	1081.000	8.205	7.226	1.910
582	1082.000	8.854	7.294	2.013
583	1083.000	7.864	7.513	2.320
584	1084.000	5.871	7.638	2.398
585	1085.000	5.304	7.722	2.464
586	1086.000	2.701	7.884	2.698
587	1087.000	4.833	8.221	2.771
588	1088.000	5.006	8.414	2.876
589	1089.000	6.071	8.598	2.884
590	1090.000	7.680	8.840	2.912
591	1091.000	10.034	9.048	2.947
592	1092.000	7.400	9.107	2.966
593	1093.000	7.832	9.127	2.979
594	1094.000	10.973	9.295	3.043
595	1095.000	13.056	9.423	3.090
596	1096.000	10.541	9.638	3.163
597	1097.000	10.561	9.865	3.084
598	1098.000	13.418	10.017	2.940
599	1099.000	12.839	10.388	2.536
600	1100.000	12.200	10.703	2.295
601	1101.000	10.925	10.945	1.964
602	1102.000	12.065	11.196	1.698
603	1103.000	12.030	11.385	1.547
604	1104.000	10.708	11.486	1.537
605	1105.000	11.214	11.626	1.289
606	1106.000	12.399	11.685	1.134
607	1107.000	12.047	11.702	1.126
608	1108.000	13.239	11.778	1.275
609	1109.000	11.546	11.954	1.396
610	1110.000	9.112	11.915	1.450
611	1111.000	11.974	11.911	1.445
612	1112.000	12.706	11.967	1.508
613	1113.000	11.069	11.974	1.510
614	1114.000	12.329	12.007	1.495
615	1115.000	12.422	11.997	1.496
616	1116.000	12.559	11.959	1.507
617	1117.000	10.899	12.079	1.522
618	1118.000	9.287	12.205	1.577
619	1119.000	11.407	12.199	1.577
620	1120.000	14.957	12.183	1.580
621	1121.000	14.951	12.135	1.565
622	1122.000	9.582	12.105	1.584
623	1123.000	13.298	12.105	1.583
624	1124.000	14.245	11.930	1.822
625	1125.000	12.384	11.747	1.966
626	1126.000	11.744	11.602	2.143
627	1127.000	11.829	11.387	2.328
628	1128.000	11.075	11.072	2.689
629	1129.000	13.691	10.826	2.825
630	1130.000	14.378	10.749	2.849
631	1131.000	12.237	10.657	2.933
632	1132.000	11.646	10.614	2.930
633	1133.000	12.048	10.358	2.812
634	1134.000	10.788	10.187	2.646
635	1135.000	9.127	10.245	2.648
636	1136.000	7.600	10.128	2.571
637	1137.000	8.111	9.894	2.443
638	1138.000	7.453	9.707	2.423
639	1139.000	6.968	9.537	2.424
640	1140.000	4.527	9.311	2.463
641	1141.000	6.407	9.079	2.562
642	1142.000	8.972	8.773	2.443
643	1143.000	7.010	8.418	2.230
644	1144.000	10.311	8.113	2.207
645	1145.000	8.564	7.980	2.082
646	1146.000	10.671	7.827	1.903
647	1147.000	11.042	7.745	1.813
648	1148.000	10.360	7.741	1.810
649	1149.000	8.405	7.828	1.854
650	1150.000	7.713	7.794	1.857
651	1151.000	7.487	7.933	1.958
652	1152.000	6.195	8.007	1.955
653	1153.000	5.271	8.231	1.858
654	1154.000	6.025	8.448	1.951
655	1155.000	5.503	8.513	1.995
656	1156.000	4.613	8.740	2.136
657	1157.000	8.340	8.672	2.111
658	1158.000	8.215	8.835	2.256
659	1159.000	8.740	8.814	2.240
660	1160.000	9.028	8.761	2.201
661	1161.000	9.779	8.689	2.175
662	1162.000	7.250	8.673	2.179
663	1163.000	10.936	8.704	2.171
664	1164.000	8.809	8.774	2.158
665	1165.000	10.119	8.917	2.097
666	1166.000	11.836	9.142	1.989
667	1167.000	10.597	9.412	2.006
668	1168.000	12.695	9.835	2.246
669	1169.000	8.601	10.260	2.223
670	1170.000	12.658	10.524	2.373
671	1171.000	10.141	10.785	2.465
672	1172.000	9.709	10.952	2.462
673	1173.000	8.569	11.081	2.442
674	1174.000	7.991	11.210	2.455
675	1175.000	8.497	11.422	2.324
676	1176.000	9.246	11.545	2.379
677	1177.000	9.757	11.744	2.348
678	1178.000	10.904	11.892	2.357
679	1179.000	12.774	12.009	2.427
680	1180.000	16.062	12.177	2.470
681	1181.000	15.248	12.365	2.681
682	1182.000	14.944	12.637	2.628
683	1183.000	14.742	12.742	2.680
684	1184.000	12.915	12.919	2.647
685	1185.000	12.250	12.978	2.589
686	1186.000	13.009	13.220	2.438
687	1187.000	12.532	13.358	2.217
688	1188.000	14.031	13.478	2.015
689	1189.000	13.773	13.537	1.904
690	1190.000	13.808	13.666	1.740
691	1191.000	14.776	13.680	1.719
692	1192.000	14.788	13.667	1.727
693	1193.000	17.402	13.468	1.725
694	1194.000	15.410	13.301	1.749
695	1195.000	15.260	13.095	1.847
696	1196.000	14.581	12.828	2.068
697	1197.000	11.178	12.682	2.188
698	1198.000	14.622	12.627	2.216
699	1199.000	11.433	12.563	2.228
700	1200.000	11.498	12.647	2.265
701	1201.000	10.730	12.722	2.342
702	1202.000	12.991	12.617	2.352
703	1203.000	11.241	12.489	2.371
704	1204.000	12.449	12.448	2.339
705	1205.000	11.099	12.547	2.490
706	1206.000	11.059	12.469	2.358
707	1207.000	9.808	12.446	2.330
708	1208.000	8.063	12.396	2.281
709	1209.000	9.256	12.340	2.242
710	1210.000	10.870	12.521	2.325
711	1211.000	11.426	12.453	2.286
712	1212.000	14.623	12.482	2.277
713	1213.000	15.901	12.432	2.313
714	1214.000	11.146	12.453	2.299
715	1215.000	10.617	12.406	2.299
716	1216.000	13.755	12.431	2.290
717	1217.000	17.264	12.367	2.311
718	1218.000	15.452	12.388	2.302
719	1219.000	14.817	12.482	2.293
720	1220.000	14.016	12.615	2.227
721	1221.000	13.190	12.760	2.028
722	1222.000	15.707	12.829	1.930
723	1223.000	12.901	12.825	1.935
724	1224.000	12.166	12.720	2.079
725	1225.000	10.240	12.576	2.067
726	1226.000	11.279	12.319	2.036
727	1227.000	11.807	12.364	2.021
728	1228.000	11.867	12.322	2.069
729	1229.000	10.846	12.218	2.060
730	1230.000	11.619	11.834	1.973
731	1231.000	13.411	11.488	2.070
732	1232.000	13.141	11.152	2.185
733	1233.000	11.692	10.918	2.178
734	1234.000	10.981	10.820	2.126
735	1235.000	10.760	10.556	1.891
736	1236.000	8.810	10.363	1.888
737	1237.000	11.010	10.215	1.886
738	1238.000	9.472	10.211	1.886
739	1239.000	12.284	10.072	1.931
740	1240.000	9.566	9.925	1.933
741	1241.000	11.162	9.702	2.021
742	1242.000	7.665	9.639	2.008
743	1243.000	6.781	9.595	1.975
744	1244.000	6.420	9.417	1.811
745	1245.000	8.176	9.365	1.715
746	1246.000	10.733	9.374	1.729
747	1247.000	9.120	9.333	1.701
748	1248.000	8.074	9.326	1.696
749	1249.000	8.460	9.461	1.785
750	1250.000	10.142	9.501	1.831
751	1251.000	7.811	9.630	1.939
752	1252.000	8.132	9.595	1.897
753	1253.000	6.273	9.733	2.016
754	1254.000	9.269	9.795	2.084
755	1255.000	10.531	9.939	2.055
756	1256.000	8.959	10.055	1.949
757	1257.000	11.834	10.197	1.796
758	1258.000	11.926	10.176	1.824
759	1259.000	9.945	10.100	1.840
760	1260.000	10.605	10.141	1.828
761	1261.000	12.183	10.174	1.796
762	1262.000	11.995	10.272	1.765
763	1263.000	12.693	10.300	1.768
764	1264.000	11.432	10.470	1.723
765	1265.000	13.011	10.714	1.807
766	1266.000	12.709	11.151	2.001
767	1267.000	11.269	11.393	2.126
768	1268.000	9.667	11.609	2.301
769	1269.000	9.988	11.822	2.292
770	1270.000	7.649	12.017	2.492
771	1271.000	8.822	12.124	2.545
772	1272.000	10.142	12.328	2.567
773	1273.000	8.917	12.695	2.940
774	1274.000	10.891	13.006	3.276
775	1275.000	10.848	13.271	3.453
776	1276.000	12.068	13.370	3.472
777	1277.000	14.223	13.441	3.448
778	1278.000	17.211	13.458	3.447
779	1279.000	15.316	13.549	3.457
780	1280.000	15.924	13.737	3.456
781	1281.000	14.284	13.950	3.357
782	1282.000	16.717	14.344	3.449
783	1283.000	14.599	14.665	3.162
784	1284.000	15.031	14.962	2.930
785	1285.000	19.788	15.298	2.835
786	1286.000	19.964	15.596	2.509
787	1287.000	18.612	15.924	2.403
788	1288.000	15.178	16.141	2.158
789	1289.000	13.190	16.293	1.986
790	1290.000	13.451	16.394	1.940
791	1291.000	14.977	16.364	1.932
792	1292.000	15.982	16.305	1.987
793	1293.000	14.981	16.267	2.003
794	1294.000	19.841	16.332	1.962
795	1295.000	15.659	16.208	2.034
796	1296.000	16.253	16.213	2.030
797	1297.000	18.542	16.173	2.064
798	1298.000	16.359	15.941	1.964
799	1299.000	19.110	15.711	1.804
800	1300.000	16.266	15.486	1.778
801	1301.000	15.875	15.404	1.839
802	1302.000	16.738	15.553	1.803
803	1303.000	16.456	15.606	1.757
804	1304.000	13.844	15.654	1.755
805	1305.000	14.982	15.482	1.925
806	1306.000	15.910	15.498	1.922
807	1307.000	13.611	15.253	1.726
808	1308.000	14.730	15.288	1.744
809	1309.000	14.031	15.068	1.951
810	1310.000	13.983	14.731	2.052
811	1311.000	14.217	14.497	2.188
812	1312.000	12.977	14.276	1.971
813	1313.000	13.129	14.161	1.933
814	1314.000	16.922	13.907	2.109
815	1315.000	14.787	13.741	2.039
816	1316.000	16.165	13.444	2.164
817	1317.000	11.680	13.359	2.188
818	1318.000	15.396	13.282	2.163
819	1319.000	13.698	13.106	2.118
820	1320.000	16.545	13.068	2.117
821	1321.000	10.760	12.983	2.090
822	1322.000	10.112	12.952	2.080
823	1323.000	10.505	12.925	2.070
824	1324.000	13.577	12.999	2.149
825	1325.000	13.404	13.097	2.203
826	1326.000	9.513	13.149	2.219
827	1327.000	12.589	13.035	2.086
828	1328.000	9.034	12.966	2.054
829	1329.000	11.731	12.764	1.974
830	1330.000	13.042	12.670	2.080
831	1331.000	11.522	12.532	2.004
832	1332.000	12.649	12.486	1.990
833	1333.000	12.604	12.369	1.820
834	1334.000	13.261	12.433	1.789
835	1335.000	13.317	12.524	1.722
836	1336.000	16.054	12.601	1.671
837	1337.000	15.417	12.392	1.861
838	1338.000	14.430	12.153	2.094
839	1339.000	14.076	12.143	2.107
840	1340.000	13.072	12.057	2.132
841	1341.000	11.108	12.133	2.052
842	1342.000	9.342	12.202	2.067
843	1343.000	11.938	12.197	2.065
844	1344.000	12.551	12.359	2.166
845	1345.000	13.617	12.501	2.298
846	1346.000	12.357	12.720	2.556
847	1347.000	12.401	12.893	2.733
848	1348.000	12.427	12.995	2.797
849	1349.000	8.339	13.052	2.875
850	1350.000	7.433	13.001	2.842
851	1351.000	9.266	13.078	2.908
852	1352.000	10.446	13.245	3.083
853	1353.000	10.926	13.311	3.097
854	1354.000	13.452	13.543	3.141
855	1355.000	12.922	13.841	3.079
856	1356.000	15.570	13.968	3.063
857	1357.000	16.200	14.187	3.151
858	1358.000	18.089	14.385	3.268
859	1359.000	17.573	14.618	3.325
860	1360.000	15.865	14.911	3.442
861	1361.000	17.477	15.175	3.495
862	1362.000	14.141	15.584	3.252
863	1363.000	16.367	16.024	2.819
864	1364.000	18.253	16.311	2.442
865	1365.000	14.714	16.522	2.121
866	1366.000	16.896	16.810	1.793
867	1367.000	16.808	16.955	1.651
868	1368.000	15.112	17.053	1.464
869	1369.000	18.010	17.090	1.436
870	1370.000	18.573	17.011	1.538
871	1371.000	18.197	16.905	1.552
872	1372.000	19.723	16.733	1.705
873	1373.000	19.017	16.562	1.986
874	1374.000	18.560	16.341	2.178
875	1375.000	18.442	16.236	2.346
876	1376.000	16.436	16.074	2.473
877	1377.000	15.724	15.934	2.443
878	1378.000	18.129	15.848	2.524
879	1379.000	17.083	15.633	2.656
880	1380.000	15.375	15.535	2.657
881	1381.000	16.470	15.583	2.660
882	1382.000	14.229	15.463	2.613
883	1383.000	15.444	15.336	2.531
884	1384.000	13.274	15.208	2.460
885	1385.000	11.596	14.993	2.278
886	1386.000	11.950	14.874	2.132
887	1387.000	11.515	14.727	1.989
888	1388.000	12.310	14.600	1.837
889	1389.000	14.755	14.520	1.797
890	1390.000	12.569	14.487	1.781
891	1391.000	11.530	14.270	1.645
892	1392.000	14.343	14.139	1.539
893	1393.000	16.320	14.013	1.562
894	1394.000	15.000	13.870	1.490
895	1395.000	15.418	13.844	1.489
896	1396.000	14.990	13.884	1.546
897	1397.000	14.339	14.023	1.641
898	1398.000	16.036	14.306	1.809
899	1399.000	14.901	14.517	1.829
900	1400.000	15.255	14.774	1.841
901	1401.000	14.457	14.982	1.846
902	1402.000	14.894	15.043	1.863
903	1403.000	12.685	15.165	1.792
904	1404.000	13.819	15.353	1.635
905	1405.000	12.216	15.483	1.680
906	1406.000	12.904	15.470	1.674
907	1407.000	13.581	15.423	1.704
908	1408.000	16.447	15.282	1.844
909	1409.000	16.734	15.208	1.893
910	1410.000	18.688	15.213	1.891
911	1411.000	17.216	15.213	1.891
912	1412.000	17.940	15.350	1.989
913	1413.000	17.517	15.364	1.989
914	1414.000	16.276	15.316	2.026
915	1415.000	15.614	15.250	2.067
916	1416.000	16.243	15.272	2.041
917	1417.000	17.584	15.151	2.213
918	1418.000	15.991	15.175	2.183
919	1419.000	13.835	15.098	2.298
920	1420.000	11.894	15.013	2.394
921	1421.000	13.127	14.786	2.518
922	1422.000	14.461	14.547	2.607
923	1423.000	16.052	14.233	2.559
924	1424.000	18.312	13.992	2.551
925	1425.000	15.610	13.846	2.416
926	1426.000	13.262	13.625	2.317
927	1427.000	13.236	13.469	2.262
928	1428.000	13.238	13.242	2.321
929	1429.000	10.791	13.081	2.243
930	1430.000	12.820	12.819	2.070
931	1431.000	10.976	12.697	1.963
932	1432.000	11.452	12.648	1.948
933	1433.000	10.770	12.795	2.026
934	1434.000	10.769	12.920	2.140
935	1435.000	10.844	13.034	2.295
936	1436.000	11.186	13.087	2.382
937	1437.000	14.291	12.878	2.119
938	1438.000	11.988	12.813	2.056
939	1439.000	12.377	12.805	2.054
940	1440.000	9.941	12.862	2.086
941	1441.000	12.208	12.958	2.159
942	1442.000	11.052	13.106	2.131
943	1443.000	12.939	13.280	2.279
944	1444.000	12.616	13.509	2.325
945	1445.000	15.563	13.540	2.302
946	1446.000	16.244	13.735	2.264
947	1447.000	17.306	13.791	2.203
948	1448.000	17.381	13.947	2.122
949	1449.000	13.082	14.161	2.102
950	1450.000	13.997	14.279	2.191
951	1451.000	13.052	14.530	2.275
952	1452.000	14.660	14.698	2.265
953	1453.000	15.657	14.935	2.046
954	1454.000	14.473	15.139	2.017
955	1455.000	17.171	15.440	1.941
956	1456.000	16.702	15.698	2.020
957	1457.000	12.222	15.940	1.999
958	1458.000	15.648	16.114	2.148
959	1459.000	12.179	16.117	2.148
960	1460.000	14.733	16.200	2.233
961	1461.000	16.537	16.272	2.301
962	1462.000	17.254	16.431	2.207
963	1463.000	18.254	16.614	2.186
964	1464.000	16.588	16.772	2.057
965	1465.000	15.868	16.952	2.062
966	1466.000	17.310	17.033	2.049
967	1467.000	18.570	17.257	2.063
968	1468.000	19.376	17.363	2.125
969	1469.000	18.686	17.344	2.133
970	1470.000	19.898	17.505	1.866
971	1471.000	16.332	17.569	1.826
972	1472.000	19.364	17.687	1.535
973	1473.000	19.191	17.804	1.407
974	1474.000	17.053	17.785	1.427
975	1475.000	18.567	17.747	1.455
976	1476.000	17.001	17.658	1.490
977	1477.000	19.178	17.716	1.475
978	1478.000	17.681	17.803	1.425
979	1479.000	20.074	17.968	1.594
980	1480.000	19.798	17.980	1.600
981	1481.000	16.232	18.033	1.669
982	1482.000	16.242	18.107	1.738
983	1483.000	17.260	18.097	1.728
984	1484.000	15.135	18.194	1.692
985	1485.000	17.645	18.095	1.693
986	1486.000	16.068	18.106	1.701
987	1487.000	16.300	18.281	1.811
988	1488.000	16.025		
989	1489.000	18.044		
990	1490.000	18.046		
991	1491.000	21.436		
992	1492.000	18.876		
993	1493.000	20.706		
994	1494.000	20.514		
995	1495.000	19.660		
996	1496.000	18.746		
997	1497.000	16.897		
998	1498.000	19.460		
999	1499.000	21.439		
